;  "Optical constants for trigonal Al2O3, ordinary ray"		
; 		
;   taken from:			
;   'Handbook of Optical Constants of Solids II', Ed. by Edward D. Palik,"		
;   Academic Press, Inc., 1991."		
;   		
;    Lambda (A)            n            k		
;-----------------------------------------		
170	0.97573	0.0485206
171.503	0.972568	0.0322375
173.02	0.96443	0.0329847
174.55	0.960516	0.0337501
176.093	0.957512	0.034535
177.65	0.954979	0.0353395
179.221	0.952857	0.036168
180.806	0.950777	0.0370179
182.405	0.948965	0.0378883
184.017	0.947142	0.0387795
185.645	0.945445	0.0396901
187.286	0.943758	0.0406233
188.942	0.942126	0.0415795
190.613	0.940518	0.0425593
192.298	0.938926	0.0435633
193.999	0.937354	0.0445938
195.714	0.935769	0.0456503
197.445	0.934226	0.046758
199.191	0.932664	0.0478957
200.952	0.931151	0.0490613
202.729	0.929622	0.0502554
206.33	0.926596	0.0527328
208.155	0.925083	0.0540196
209.995	0.923575	0.0553429
211.852	0.922061	0.0567019
213.725	0.920564	0.0580942
215.615	0.919052	0.0595207
217.522	0.917563	0.0609822
219.445	0.916056	0.0624796
221.386	0.914567	0.064014
223.343	0.913067	0.0655859
225.318	0.911575	0.0671964
227.31	0.910082	0.0688464
229.32	0.90859	0.070537
231.348	0.907106	0.0722715
233.394	0.905615	0.0740499
235.458	0.90415	0.0758767
237.54	0.902674	0.0777495
239.64	0.901237	0.0796687
241.759	0.899794	0.0816352
243.897	0.898387	0.0836503
246.054	0.896996	0.0857151
248.229	0.895642	0.0878309
250.424	0.894359	0.0899988
252.639	0.893133	0.0922204
254.873	0.891992	0.094325
257.126	0.890879	0.0964139
259.4	0.889679	0.0984388
261.694	0.888458	0.100493
264.008	0.887188	0.102563
266.342	0.885901	0.104676
268.697	0.884584	0.106832
271.073	0.883258	0.109033
273.47	0.88192	0.11128
275.888	0.880578	0.113573
278.328	0.879229	0.115913
280.789	0.877881	0.118302
283.272	0.876528	0.12074
285.777	0.875184	0.123229
288.303	0.873837	0.125769
290.853	0.872503	0.128361
293.425	0.871171	0.131007
296.019	0.869853	0.133708
298.637	0.868549	0.136465
301.277	0.867258	0.139279
303.941	0.865991	0.142144
306.629	0.864734	0.145065
309.34	0.863512	0.148045
312.076	0.862297	0.151085
314.835	0.861133	0.154189
317.619	0.859986	0.157357
320.428	0.858895	0.16059
323.261	0.857844	0.16389
326.119	0.856854	0.167259
329.003	0.855943	0.170697
331.912	0.855098	0.174206
334.847	0.854418	0.177787
337.808	0.85381	0.181443
340.795	0.853735	0.184973
343.809	0.85371	0.188471
346.849	0.853436	0.191299
349.916	0.853115	0.194169
353.01	0.852616	0.197083
356.131	0.85207	0.200041
359.28	0.851461	0.203042
362.457	0.850814	0.206089
365.662	0.850155	0.209182
368.896	0.849463	0.212321
372.158	0.84878	0.215508
375.448	0.848071	0.218742
378.768	0.847377	0.222022
382.118	0.846669	0.225335
385.496	0.845968	0.228696
388.905	0.845261	0.232105
392.344	0.844558	0.235564
395.813	0.843861	0.239076
399.313	0.84317	0.24264
402.844	0.842495	0.246258
406.406	0.841829	0.24993
410	0.841184	0.253657
413	0.791	0.285
427.6	0.782	0.307
442.9	0.774	0.33
459.3	0.762	0.362
476.9	0.75	0.395
496	0.737	0.436
516.7	0.73	0.5
539.1	0.737	0.574
563.6	0.764	0.651
590.5	0.805	0.725
620	0.856	0.774
652.6	0.896	0.832
688.9	0.953	0.916
729.4	1.037	0.998
775	1.149	1.078
826.7	1.297	1.135
885.7	1.465	1.166
953.8	1.657	1.179
1033	1.885	1.171
1127	2.231	1.1029
1240	2.519	0.629
1378	2.338	0.108
1550	2.074	0.032
1771	1.939	0.007
2066.33	1.834	0
2101.36	1.834	0
2137.59	1.834	0
2175.09	1.834	0
2213.93	1.834	0
2254.18	1.834	0
2295.93	1.834	0
2339.25	1.834	0
2384.23	1.834	0
2430.98	1.834	0
2479.6	1.834	0
2530.2	1.834	0
2582.92	1.834	0
2637.87	1.834	0
2695.22	1.831	0
2755.11	1.827	0
2817.73	1.823	0
2883.26	1.82	0
2951.9	1.817	0
3023.9	1.813	0
3099.5	1.81	0
3178.97	1.807	0
3262.63	1.804	0
3350.81	1.801	0
3443.89	1.799	0
3542.29	1.796	0
3646.47	1.794	0
3756.97	1.791	0
3874.38	1.789	0
3999.35	1.787	0
4132.67	1.784	0
4275.17	1.782	0
4427.86	1.78	0
4591.85	1.779	0
4768.46	1.777	0
4959.2	1.775	0
5165.83	1.773	0
5390.44	1.771	0
5635.45	1.77	0
5903.81	1.768	0
6199	1.767	0
6525.26	1.765	0
6887.78	1.764	0
7292.94	1.762	0
7748.75	1.761	0
8265.33	1.759	0
8855.71	1.758	0
9536.92	1.757	0
10331.7	1.755	0
11270.9	1.753	0
12398	1.751	0
13775.6	1.749	0
15497.5	1.746	0
17711.4	1.742	0
20663.3	1.736	0
24796	1.726	0
25636.9	1.723	0
26311.5	1.721	0
27022.7	1.719	0
27773.3	1.716	0
28566.8	1.714	0
29407	1.712	0
30298.1	1.709	0
31245	1.707	0
32252.9	1.705	0
33328	1.701	0
34477.2	1.697	0
35708.5	1.692	0
37031.1	1.687	0
38455.3	1.681	0
39993.5	1.674	0
41659.9	1.667	0
43471.2	1.658	0
45447.2	1.647	0
47611.4	1.636	0
49991.9	1.624	0
52623.1	1.607	0
55546.6	1.624	0.002
58814	1.6	0.002
62489.9	1.571	0.003
66655.9	1.534	0.004
71417	1.485	0.005
76910.7	1.419	0.007
83319.9	1.325	0.011
90894.4	1.181	0.017
99983.9	0.925	0.034
100961	0.888	0.037
102041	0.847	0.041
103059	0.801	0.045
104185	0.75	0.051
105246	0.693	0.058
106329	0.627	0.067
107528	0.55	0.081
108659	0.456	0.103
109911	0.34	0.147
111093	0.213	0.249
112301	0.143	0.393
113639	0.115	0.522
114903	0.101	0.634
116304	0.093	0.737
117628	0.088	0.834
118983	0.085	0.927
120486	0.083	1.017
121908	0.083	1.107
123486	0.083	1.197
124980	0.084	1.287
126562	0.085	1.379
128184	0.088	1.473
129849	0.09	1.571
131558	0.094	1.672
133312	0.099	1.778
135113	0.104	1.89
136964	0.111	2.01
138866	0.12	2.138
140822	0.131	2.278
142834	0.145	2.433
144904	0.165	2.607
147035	0.192	2.807
149230	0.236	3.047
151491	0.317	3.35
153821	0.516	3.761
156225	1.222	4.181
158705	1.718	3.157
161264	0.852	3.306
163908	0.698	4.006
166640	0.841	4.789
169464	1.298	5.81
172386	2.636	7.24
175410	6.57	7.32
178543	7.683	3.15
181789	6.256	1.432
185155	5.206	0.865
188649	4.455	0.635
192277	3.856	0.545
196047	3.318	0.544
199968	2.774	0.642
204049	2.17	0.93
208300	1.62	1.635
212732	1.521	2.697
217356	1.989	3.903
222186	3.501	5.065
227236	6.125	4.255
232521	6.386	2.025
238057	5.683	1.057
243863	5.102	0.699
249960	4.677	0.612
256369	4.482	0.719
263115	4.589	0.634
270227	4.485	0.378
277733	4.302	0.245
285668	4.144	0.178
294070	4.015	0.139
302981	3.908	0.113
312450	3.818	0.095
322529	3.74	0.082
333280	3.672	0.071
344772	3.611	0.062
357085	3.558	0.055
370311	3.51	0.049
384553	3.467	0.044
399936	3.428	0.04
416599	3.393	0.036
434712	3.361	0.033
454472	3.331	0.03
476114	3.304	0.027
499919	3.28	0.025
526231	3.258	0.023
555466	3.237	0.021
588140	3.218	0.019
624899	3.201	0.017
666559	3.185	0.016
714170	3.171	0.014
769107	3.158	0.013
833199	3.146	0.012
908944	3.135	0.011
999839	3.126	0.009
1.11E+06	3.117	0.008
1.25E+06	3.11	0.007
1.43E+06	3.103	0.006
1.67E+06	3.097	0.005
2.00E+06	3.093	0.004
2.50E+06	3.089	0.004
3.33E+06	3.086	0.003
5.00E+06	3.084	0.002
1.00E+07	3.083	0.001
